60-30-7-filterpaper
8/31/2021 9:23 PM
Time [s]	CA left [°]	CA right [°]	CA mean [°]	Volume [μl]	Baseline [mm]
0.00	67.82	68.15	67.99	2.85	2.85
0.72	72.17	71.46	71.82	3.96	3.00
1.44	70.09	69.94	70.02	3.93	2.99
2.16	68.79	68.87	68.83	3.91	2.99
2.88	68.39	68.30	68.34	3.87	3.00
3.60	67.54	67.48	67.51	3.80	3.01
4.32	66.69	65.93	66.31	3.43	3.00
5.04	66.13	64.54	65.34	3.14	3.02
5.76	65.93	63.79	64.86	2.91	3.02
6.48	65.35	62.96	64.16	2.75	3.00
7.20	65.41	63.13	64.27	2.81	3.00
7.92	65.05	62.81	63.93	2.78	3.00
8.64	64.72	62.78	63.75	2.83	3.00
9.36	64.79	62.80	63.80	2.84	3.00
10.08	64.45	62.46	63.45	2.78	2.99
10.80	64.66	62.50	63.58	2.79	2.99
11.52	64.57	62.44	63.50	2.79	2.99
12.24	64.67	62.57	63.62	2.79	2.99
12.96	64.36	62.35	63.35	2.78	2.99
13.68	64.27	62.28	63.27	2.80	2.99
14.40	64.30	62.39	63.35	2.83	2.99
15.12	64.19	62.30	63.24	2.81	2.99
15.84	64.27	62.52	63.39	2.86	2.99
16.56	64.03	62.12	63.08	2.80	2.99
17.28	63.94	62.20	63.07	2.81	2.99
18.00	64.15	62.20	63.17	2.83	2.99
18.72	64.01	62.09	63.05	2.82	2.99
19.44	63.86	62.04	62.95	2.84	2.99
20.16	63.54	61.92	62.73	2.80	2.98
20.88	63.56	61.86	62.71	2.82	2.98
21.60	63.82	62.03	62.93	2.83	2.99
22.32	63.72	62.02	62.87	2.82	2.98
23.04	63.69	62.01	62.85	2.85	2.98
23.76	63.70	62.05	62.88	2.85	2.99
24.48	63.99	62.23	63.11	2.86	2.99
25.20	63.48	61.68	62.58	2.78	2.99
25.92	63.44	61.45	62.44	2.77	3.00
26.64	63.06	60.99	62.02	2.65	3.00
27.36	62.66	59.90	61.28	2.47	3.02
28.08	62.84	60.07	61.46	2.51	3.02
28.80	62.46	59.97	61.22	2.50	3.02
29.52	62.30	59.76	61.03	2.47	3.02
30.24	62.60	59.93	61.26	2.47	3.02
30.96	62.36	59.76	61.06	2.49	3.02
31.68	62.19	59.73	60.96	2.52	3.02
32.40	62.27	59.76	61.02	2.55	3.02
33.12	62.10	59.72	60.91	2.56	3.02
33.84	62.26	59.72	60.99	2.55	3.02
34.56	62.10	59.64	60.87	2.54	3.02
35.28	62.13	59.59	60.86	2.53	3.02
36.00	62.03	59.68	60.85	2.55	3.02
36.72	62.08	59.69	60.89	2.56	3.02
37.44	61.82	59.52	60.67	2.57	3.02
38.16	61.78	59.70	60.74	2.58	3.02
38.88	61.55	59.34	60.45	2.61	3.02
39.60	61.35	59.23	60.29	2.60	3.02
40.32	61.59	59.44	60.51	2.63	3.02
41.04	61.70	59.44	60.57	2.63	3.02
41.76	61.53	59.26	60.39	2.61	3.02
42.48	61.25	59.33	60.29	2.68	3.02
43.20	61.42	59.52	60.47	2.69	3.02
43.92	61.44	59.36	60.40	2.68	3.02
44.64	61.24	59.20	60.22	2.65	3.02
45.36	61.55	59.54	60.55	2.69	3.02
46.08	61.37	59.44	60.40	2.70	3.02
46.80	61.24	59.28	60.26	2.67	3.02
47.51	61.34	59.47	60.40	2.70	3.02
48.23	61.39	59.23	60.31	2.66	3.02
48.95	60.97	59.02	59.99	2.64	3.01
49.67	61.10	59.19	60.14	2.65	3.02
50.39	60.94	58.99	59.97	2.64	3.01
51.11	61.06	59.10	60.08	2.66	3.02
51.83	60.85	58.84	59.85	2.59	3.01
52.55	61.11	59.15	60.13	2.66	3.02
53.27	61.37	59.40	60.39	2.69	3.02
53.99	60.90	59.01	59.95	2.61	3.01
54.71	60.92	58.98	59.95	2.63	3.01
55.43	61.16	59.09	60.13	2.65	3.02
56.15	61.22	59.17	60.20	2.64	3.02
56.87	60.97	58.96	59.97	2.63	3.02
57.59	60.97	59.03	60.00	2.62	3.02
58.31	61.02	58.85	59.94	2.60	3.01
59.03	60.88	58.88	59.88	2.60	3.01
59.75	60.86	58.76	59.81	2.62	3.01
60.47	60.77	58.70	59.73	2.61	3.01
61.19	60.76	58.68	59.72	2.58	3.01
61.91	60.96	58.95	59.96	2.62	3.01
62.63	61.01	59.01	60.01	2.65	3.02
63.35	61.18	59.10	60.14	2.66	3.02
64.07	61.15	59.14	60.15	2.64	3.02
64.79	60.91	58.86	59.89	2.60	3.01
65.51	60.98	58.93	59.96	2.61	3.01
66.23	61.01	58.78	59.90	2.59	3.01
66.95	60.94	58.78	59.86	2.59	3.01
67.67	60.65	58.76	59.71	2.59	3.01
68.39	60.93	58.73	59.83	2.59	3.01
69.11	60.76	58.73	59.75	2.58	3.01
69.83	60.84	58.77	59.81	2.60	3.01
70.55	60.74	58.64	59.69	2.57	3.01
71.27	60.93	58.75	59.84	2.61	3.01
71.99	60.77	58.78	59.77	2.61	3.01
72.71	60.53	58.73	59.63	2.60	3.01
73.43	60.83	58.78	59.81	2.60	3.01
74.15	60.54	58.52	59.53	2.56	3.00
74.87	60.41	58.48	59.44	2.57	3.00
75.59	60.42	58.40	59.41	2.56	3.00
76.31	60.61	58.48	59.54	2.58	3.00
77.03	60.66	58.63	59.65	2.58	3.01
77.75	60.24	58.24	59.24	2.54	3.00
78.47	60.45	58.37	59.41	2.56	3.00
79.19	60.47	58.54	59.51	2.56	3.00
79.91	60.77	58.77	59.77	2.60	3.01
80.63	60.46	58.40	59.43	2.58	3.00
81.35	60.69	58.86	59.78	2.66	3.01
82.07	60.11	58.32	59.22	2.61	3.01
82.79	60.45	58.40	59.42	2.59	3.01
83.51	60.24	58.28	59.26	2.58	3.01
84.23	60.25	58.45	59.35	2.60	3.01
84.95	60.34	58.64	59.49	2.65	3.01
85.67	60.25	58.31	59.28	2.61	3.01
86.39	60.24	58.46	59.35	2.63	3.01
87.11	59.89	58.19	59.04	2.59	3.00
87.83	60.17	58.36	59.27	2.61	3.01
88.55	59.91	58.03	58.97	2.58	3.00
89.27	60.05	58.20	59.12	2.59	3.01
89.99	59.96	58.22	59.09	2.62	3.01
90.71	59.97	58.16	59.07	2.60	3.01
91.43	60.22	58.21	59.21	2.59	3.01
92.15	60.04	58.19	59.11	2.59	3.01
92.87	59.87	58.10	58.98	2.58	3.01
93.59	59.85	58.01	58.93	2.57	3.00
94.31	60.01	58.41	59.21	2.64	3.01
95.03	59.76	58.10	58.93	2.59	3.00
95.75	59.78	58.02	58.90	2.58	3.00
96.47	60.10	58.37	59.24	2.64	3.01
97.19	59.76	58.08	58.92	2.60	3.00
97.91	59.75	57.93	58.84	2.57	3.00
98.63	59.70	58.12	58.91	2.61	3.00
99.35	59.56	57.86	58.71	2.55	3.00
100.07	59.57	57.88	58.73	2.56	3.00
100.79	59.76	58.03	58.89	2.59	3.00
101.51	59.39	57.76	58.57	2.55	3.00
102.23	59.83	58.13	58.98	2.61	3.01
102.95	59.80	57.93	58.87	2.58	3.00
103.67	59.88	58.01	58.94	2.58	3.00
104.39	59.71	57.95	58.83	2.58	3.00
105.11	59.72	57.96	58.84	2.60	3.00
105.83	59.59	57.89	58.74	2.59	3.00
106.55	59.69	57.97	58.83	2.57	3.00
107.27	59.72	57.99	58.86	2.58	3.00
107.99	59.40	57.73	58.56	2.57	2.99
108.71	59.53	57.92	58.73	2.59	3.00
109.43	59.47	57.84	58.66	2.60	3.00
110.15	59.48	57.93	58.70	2.59	3.00
110.87	59.49	57.96	58.73	2.59	3.00
111.59	59.39	57.69	58.54	2.55	2.99
112.31	59.42	57.91	58.67	2.58	3.00
113.03	59.50	57.95	58.72	2.60	3.00
113.75	59.49	57.88	58.69	2.59	3.00
114.47	59.44	57.80	58.62	2.58	3.00
115.19	59.24	57.66	58.45	2.58	2.99
115.91	59.39	57.87	58.63	2.57	3.00
116.63	59.57	57.90	58.73	2.58	3.00
117.35	59.28	57.65	58.47	2.55	2.99
118.07	59.48	57.81	58.64	2.58	2.99
118.79	59.43	57.68	58.55	2.57	2.99
119.51	59.52	57.79	58.66	2.59	3.00
120.23	59.24	57.60	58.42	2.58	2.99
120.95	58.98	57.45	58.22	2.54	2.99
121.67	59.11	57.54	58.33	2.56	2.99
122.39	59.35	57.83	58.59	2.59	3.00
123.11	59.11	57.56	58.34	2.57	2.99
123.83	59.10	57.47	58.28	2.56	2.99
124.55	59.05	57.50	58.28	2.56	2.99
125.27	59.27	57.76	58.52	2.58	3.00
125.99	58.83	57.39	58.11	2.54	2.99
126.71	59.12	57.48	58.30	2.56	2.99
127.43	58.94	57.47	58.21	2.56	2.99
128.15	59.16	57.68	58.42	2.57	2.99
128.87	59.16	57.54	58.35	2.55	2.99
129.59	59.17	57.50	58.34	2.58	2.99
130.31	59.20	57.63	58.41	2.59	2.99
131.03	58.93	57.22	58.07	2.53	2.99
131.75	59.27	57.68	58.48	2.58	2.99
132.47	58.87	57.44	58.15	2.56	2.99
133.19	58.95	57.36	58.16	2.53	2.99
133.91	58.97	57.49	58.23	2.58	2.99
134.63	59.02	57.43	58.23	2.55	2.99
135.35	58.99	57.43	58.21	2.54	2.99
136.07	59.01	57.33	58.17	2.55	2.99
136.79	59.07	57.50	58.29	2.57	2.99
137.51	58.94	57.33	58.13	2.55	2.99
138.23	58.88	57.32	58.10	2.54	2.99
138.95	58.92	57.36	58.14	2.55	2.99
139.67	59.07	57.27	58.17	2.53	2.99
140.39	59.09	57.42	58.25	2.55	2.99
141.11	59.08	57.44	58.26	2.55	2.99
141.82	58.67	57.16	57.91	2.52	2.98
142.54	58.80	57.26	58.03	2.53	2.98
143.26	58.76	57.10	57.93	2.51	2.98
143.98	58.97	57.33	58.15	2.55	2.99
144.70	58.82	57.19	58.01	2.51	2.99
145.42	58.67	57.15	57.91	2.53	2.98
146.14	58.90	57.29	58.09	2.52	2.99
146.86	58.83	57.16	58.00	2.53	2.99
147.58	58.65	57.17	57.91	2.52	2.98
148.30	58.73	57.33	58.03	2.56	2.98
149.02	58.81	57.21	58.01	2.53	2.98
149.74	58.76	57.18	57.97	2.54	2.98
150.46	58.66	57.08	57.87	2.51	2.98
151.18	58.63	57.01	57.82	2.51	2.98
151.90	58.64	57.15	57.90	2.52	2.98
152.62	58.99	57.22	58.10	2.54	2.98
153.34	58.80	57.18	57.99	2.53	2.98
154.06	58.89	57.23	58.06	2.51	2.99
154.78	58.63	57.00	57.82	2.51	2.98
155.50	58.61	57.06	57.84	2.50	2.98
156.22	58.76	57.29	58.02	2.55	2.98
156.94	58.59	57.16	57.88	2.51	2.98
157.66	58.65	57.03	57.84	2.49	2.98
158.38	58.41	56.98	57.70	2.50	2.98
159.10	58.34	56.88	57.61	2.49	2.98
159.82	58.57	57.03	57.80	2.50	2.98
160.54	58.41	56.77	57.59	2.46	2.97
161.26	58.70	57.13	57.91	2.51	2.98
161.98	58.32	56.76	57.54	2.46	2.97
162.70	58.62	57.07	57.84	2.51	2.98
163.42	58.46	56.77	57.62	2.46	2.97
164.14	58.47	57.09	57.78	2.51	2.98
164.86	58.42	56.90	57.66	2.51	2.98
165.58	58.33	56.75	57.54	2.48	2.97
166.30	58.53	57.00	57.76	2.51	2.98
167.02	58.51	56.96	57.73	2.52	2.98
167.74	58.39	56.89	57.64	2.51	2.97
168.46	58.24	56.71	57.47	2.49	2.97
169.18	58.21	56.77	57.49	2.49	2.97
169.90	58.29	56.82	57.55	2.51	2.97
170.62	58.23	56.63	57.43	2.47	2.97
171.34	57.81	56.38	57.10	2.45	2.97
172.06	58.30	56.77	57.53	2.50	2.97
172.78	58.17	56.77	57.47	2.49	2.97
173.50	58.02	56.54	57.28	2.45	2.97
174.22	57.88	56.55	57.21	2.45	2.97
174.94	58.29	56.81	57.55	2.49	2.97
175.66	57.93	56.44	57.19	2.45	2.97
176.38	58.17	56.61	57.39	2.47	2.97
177.10	58.19	56.72	57.46	2.49	2.97
177.82	58.42	56.86	57.64	2.50	2.98
178.54	58.05	56.56	57.31	2.46	2.97
179.26	57.83	56.34	57.08	2.42	2.96
179.98	57.94	56.45	57.19	2.44	2.96
180.70	58.21	56.64	57.42	2.48	2.97
181.42	58.20	56.77	57.49	2.48	2.97
182.14	57.72	56.31	57.02	2.42	2.96
182.86	58.22	56.62	57.42	2.47	2.97
183.58	57.80	56.36	57.08	2.43	2.96
184.30	58.03	56.45	57.24	2.46	2.97
185.02	57.88	56.49	57.19	2.45	2.97
185.74	58.15	56.63	57.39	2.46	2.97
186.46	57.72	56.15	56.93	2.43	2.96
187.18	57.86	56.44	57.15	2.45	2.97
187.90	57.84	56.44	57.14	2.45	2.97
188.62	57.90	56.47	57.18	2.47	2.97
189.34	57.67	56.17	56.92	2.43	2.96
190.06	57.92	56.53	57.22	2.48	2.97
190.78	57.82	56.38	57.10	2.46	2.96
191.50	57.77	56.35	57.06	2.43	2.97
192.22	57.85	56.39	57.12	2.44	2.97
192.94	57.86	56.32	57.09	2.43	2.96
193.66	57.59	56.08	56.84	2.40	2.96
194.38	57.78	56.34	57.06	2.44	2.96
195.10	57.84	56.33	57.09	2.43	2.96
195.82	57.69	56.32	57.00	2.44	2.96
196.54	57.70	56.33	57.01	2.43	2.96
197.26	57.63	56.11	56.87	2.43	2.96
197.98	57.74	56.11	56.92	2.42	2.96
198.70	57.37	55.89	56.63	2.39	2.95
199.42	57.35	56.02	56.69	2.41	2.96
200.14	57.50	56.07	56.79	2.40	2.96
200.86	57.51	56.00	56.75	2.41	2.96
201.58	57.43	55.95	56.69	2.40	2.96
202.30	57.49	56.24	56.87	2.42	2.96
203.02	57.34	55.94	56.64	2.38	2.95
203.74	57.73	56.15	56.94	2.41	2.96
204.46	57.64	56.11	56.88	2.41	2.96
205.18	57.62	56.24	56.93	2.42	2.96
205.90	57.45	56.02	56.73	2.42	2.96
206.62	57.78	56.27	57.02	2.43	2.97
207.34	57.20	55.89	56.55	2.39	2.95
208.06	57.45	55.98	56.71	2.39	2.96
208.78	57.39	55.95	56.67	2.40	2.95
209.50	57.71	56.12	56.92	2.38	2.96
210.22	57.69	56.20	56.94	2.43	2.96
210.94	57.45	55.97	56.71	2.40	2.96
211.66	57.57	56.01	56.79	2.42	2.96
212.38	57.27	55.90	56.58	2.40	2.96
213.10	57.52	55.95	56.73	2.37	2.96
213.82	57.50	56.05	56.78	2.40	2.96
214.54	57.53	55.90	56.71	2.40	2.96
215.26	57.27	55.82	56.55	2.38	2.96
215.98	57.24	55.70	56.47	2.37	2.95
216.70	57.31	55.71	56.51	2.36	2.95
217.42	57.50	55.97	56.74	2.42	2.96
218.14	57.24	55.84	56.54	2.38	2.95
218.86	57.41	56.05	56.73	2.42	2.96
219.58	57.03	55.55	56.29	2.34	2.95
220.30	57.13	55.68	56.40	2.35	2.95
221.02	57.15	55.74	56.44	2.35	2.95
221.74	57.08	55.63	56.36	2.35	2.95
222.46	57.16	55.55	56.35	2.35	2.95
223.18	57.06	55.54	56.30	2.34	2.95
223.90	57.13	55.67	56.40	2.37	2.95
224.62	57.04	55.74	56.39	2.38	2.95
225.34	57.11	55.62	56.36	2.37	2.95
226.06	57.18	55.69	56.43	2.36	2.95
226.78	57.10	55.76	56.43	2.37	2.95
227.50	57.13	55.60	56.36	2.36	2.95
228.22	56.84	55.37	56.10	2.32	2.95
228.94	57.05	55.66	56.35	2.36	2.95
229.66	56.92	55.53	56.22	2.35	2.95
230.38	57.04	55.50	56.27	2.33	2.95
231.10	57.03	55.43	56.23	2.34	2.95
231.82	56.98	55.51	56.25	2.35	2.95
232.54	57.03	55.67	56.35	2.36	2.95
233.26	56.82	55.39	56.11	2.33	2.95
233.98	56.93	55.41	56.17	2.34	2.95
234.70	56.96	55.50	56.23	2.34	2.95
235.42	57.06	55.52	56.29	2.34	2.95
236.13	56.86	55.22	56.04	2.30	2.95
236.85	56.85	55.25	56.05	2.30	2.95
237.57	56.86	55.12	55.99	2.29	2.95
238.29	56.99	55.40	56.20	2.33	2.95
239.01	56.80	55.15	55.98	2.29	2.95
239.73	56.66	55.14	55.90	2.28	2.94
240.45	56.90	55.41	56.16	2.32	2.95
241.17	56.72	55.05	55.88	2.27	2.94
241.89	56.64	55.14	55.89	2.29	2.95
242.61	56.72	55.01	55.86	2.27	2.94
243.33	56.73	55.28	56.01	2.30	2.95
244.05	56.58	55.22	55.90	2.31	2.95
244.77	56.63	55.14	55.88	2.28	2.95
245.49	56.64	55.01	55.82	2.25	2.95
246.21	56.46	54.91	55.68	2.27	2.94
246.93	56.68	55.10	55.89	2.28	2.95
247.65	56.88	55.22	56.05	2.28	2.95
248.37	56.73	55.08	55.90	2.29	2.95
249.09	56.84	55.03	55.93	2.25	2.95
249.81	56.67	55.07	55.87	2.27	2.95
250.53	56.62	55.07	55.84	2.29	2.94
251.25	56.74	55.06	55.90	2.27	2.95
251.97	56.48	54.80	55.64	2.25	2.94
252.69	56.49	54.81	55.65	2.25	2.94
253.41	56.62	55.11	55.87	2.28	2.95
254.13	56.58	55.11	55.85	2.29	2.94
254.85	56.43	54.77	55.60	2.21	2.94
255.57	56.58	54.90	55.74	2.24	2.94
256.29	56.51	54.94	55.73	2.26	2.94
257.01	56.45	54.98	55.72	2.26	2.94
257.73	56.40	54.81	55.60	2.24	2.94
258.45	56.35	54.98	55.67	2.28	2.94
259.17	56.38	54.83	55.60	2.25	2.94
259.89	56.53	54.94	55.74	2.27	2.94
260.61	56.42	54.90	55.66	2.25	2.94
261.33	56.41	54.87	55.64	2.27	2.94
262.05	56.77	55.03	55.90	2.27	2.95
262.77	56.23	54.70	55.47	2.22	2.94
263.49	56.26	54.61	55.44	2.20	2.93
264.21	56.57	55.01	55.79	2.27	2.94
264.93	56.41	54.89	55.65	2.27	2.94
265.65	56.53	54.98	55.76	2.27	2.94
266.37	56.22	54.67	55.44	2.23	2.93
267.09	56.45	54.66	55.56	2.21	2.94
267.81	56.26	54.66	55.46	2.23	2.94
268.53	56.47	54.76	55.61	2.25	2.94
269.25	56.42	54.85	55.64	2.27	2.94
269.97	56.34	54.82	55.58	2.25	2.94
270.69	56.37	54.68	55.53	2.22	2.94
271.41	56.30	54.64	55.47	2.21	2.93
272.13	56.26	54.69	55.48	2.24	2.93
272.85	56.19	54.54	55.37	2.22	2.93
273.57	56.19	54.48	55.33	2.21	2.93
274.29	56.01	54.45	55.23	2.21	2.93
275.01	56.15	54.43	55.29	2.19	2.93
275.73	56.36	54.63	55.50	2.20	2.93
276.45	56.24	54.64	55.44	2.24	2.94
277.17	56.37	54.71	55.54	2.22	2.94
277.89	55.98	54.43	55.20	2.19	2.93
278.61	56.16	54.53	55.34	2.21	2.93
279.33	56.12	54.50	55.31	2.19	2.93
280.05	56.14	54.55	55.35	2.23	2.94
280.77	55.90	54.35	55.13	2.19	2.92
281.49	56.24	54.59	55.42	2.21	2.93
282.21	56.26	54.57	55.41	2.21	2.93
282.93	56.04	54.53	55.29	2.22	2.93
283.65	55.91	54.33	55.12	2.19	2.93
284.37	55.84	54.34	55.09	2.21	2.93
285.09	55.78	54.36	55.07	2.20	2.93
285.81	55.99	54.32	55.15	2.20	2.93
286.53	55.88	54.35	55.12	2.18	2.92
287.25	56.08	54.37	55.22	2.17	2.93
287.97	55.80	54.30	55.05	2.16	2.92
288.69	55.81	54.28	55.04	2.19	2.93
289.41	55.56	54.14	54.85	2.17	2.92
290.13	56.06	54.55	55.31	2.21	2.93
290.85	55.87	54.26	55.06	2.17	2.93
291.57	55.84	54.17	55.01	2.15	2.93
292.29	55.89	54.27	55.08	2.15	2.92
293.01	55.92	54.22	55.07	2.17	2.93
293.73	55.90	54.23	55.06	2.16	2.92
294.45	55.80	54.15	54.97	2.18	2.92
295.17	55.80	54.29	55.05	2.19	2.92
295.89	55.47	53.99	54.73	2.15	2.92
296.61	55.76	54.26	55.01	2.17	2.92
297.33	55.77	54.36	55.07	2.19	2.93
298.05	55.80	54.11	54.95	2.15	2.92
298.77	55.82	54.21	55.01	2.19	2.92
299.49	55.65	54.01	54.83	2.14	2.92